#BFeld BFeldmessung, Probe/Zentrum bei 80 mm
#x-Position [mm] | Feldst√§rke [mT]
65 -15  51
70 -10 188
72  -8 209
74  -6 219
75  -5 222
76  -4 224
77  -3 225
78  -2 226
79  -1 225
80   0 225
81   1 222
82   2 219
83   3 214
84   4 209
85   5 200
86   6 187
88   8 149
90  10  90
95  15  17
